wavenumber,transmittance
4000.0,-0.009419597985874474
3996.0,-0.010326298029767172
3992.0,-0.010989336347760552
3988.01,-0.012583862451238199
3984.01,-0.013997641835159069
3980.01,-0.01337779109038691
3976.01,-0.011072739420298447
3972.02,-0.008633874167036159
3968.02,-0.00639368045914078
3964.02,-0.004167615322603181
3960.02,-0.0030438867587925696
3956.03,-0.004282657537675636
3952.03,-0.007019563794196417
3948.03,-0.009071396376675648
3944.03,-0.01001007532583457
3940.04,-0.010916047957375856
3936.04,-0.012100376947629578
3932.04,-0.013436490700036136
3928.04,-0.015544271376365451
3924.05,-0.01817034368125528
3920.05,-0.018878662079940205
3916.05,-0.016922500938837907
3912.05,-0.016297478372489398
3908.05,-0.020773406454400484
3904.06,-0.027725041446546448
3900.06,-0.029826166625899684
3896.06,-0.026188093644364356
3892.06,-0.023622872952616513
3888.07,-0.025589245597301857
3884.07,-0.028619069228126275
3880.07,-0.02927691807722413
3876.07,-0.02929366869898988
3872.08,-0.030647742806179847
3868.08,-0.03131666271764706
3864.08,-0.029383458488794312
3860.08,-0.026941014463183477
3856.09,-0.0265800087531323
3852.09,-0.027969993621520334
3848.09,-0.029952511509524278
3844.09,-0.032806104432148236
3840.1,-0.0355982868603051
3836.1,-0.03531680614110375
3832.1,-0.0324947689486873
3828.1,-0.031917611900133376
3824.11,-0.03418674616474507
3820.11,-0.033716517271072194
3816.11,-0.027485188544965948
3812.11,-0.021767703140759938
3808.11,-0.021665411123180624
3804.12,-0.02329646529690576
3800.12,-0.019596877743739523
3796.12,-0.012282411661047515
3792.12,-0.008984550251234857
3788.13,-0.01134342641795167
3784.13,-0.015116820382065188
3780.13,-0.01665211551101623
3776.13,-0.016753843157517562
3772.14,-0.017485345128781485
3768.14,-0.01900460347473799
3764.14,-0.0213633120682074
3760.14,-0.02611061796169612
3756.15,-0.03414751260211817
3752.15,-0.04355454116453116
3748.15,-0.05067686726423868
3744.15,-0.05408978667453092
3740.16,-0.05462716802291347
3736.16,-0.05200996711261072
3732.16,-0.04624005316672736
3728.16,-0.03973983856244784
3724.16,-0.03534190714111571
3720.17,-0.03400112862885075
3716.17,-0.03453450009464287
3712.17,-0.0335561544944455
3708.17,-0.02762293700140238
3704.18,-0.018817132821200358
3700.18,-0.014220331519259157
3696.18,-0.017949029647379395
3692.18,-0.02585304080246812
3688.19,-0.028919040659525348
3684.19,-0.02531755426986143
3680.19,-0.02198819181042868
3676.19,-0.02229530391908062
3672.2,-0.02072003494895419
3668.2,-0.014007368455518593
3664.2,-0.00983121799175944
3660.2,-0.015673556554076352
3656.21,-0.030748200424084736
3652.21,-0.04432975857013206
3648.21,-0.04341106671969208
3644.21,-0.03195204896380418
3640.21,-0.023518124255576384
3636.22,-0.023194092873943122
3632.22,-0.028006261523441024
3628.22,-0.032201077825193894
3624.22,-0.03287782219977593
3620.23,-0.031762723035307416
3616.23,-0.030447854962783266
3612.23,-0.027649652405639873
3608.23,-0.022455201176725007
3604.24,-0.017715895921366867
3600.24,-0.017288603263492883
3596.24,-0.021613999374994468
3592.24,-0.026720184516663834
3588.25,-0.02717807695588632
3584.25,-0.02199377625376437
3580.25,-0.015896311162871435
3576.25,-0.013767027237386225
3572.26,-0.016535067677010296
3568.26,-0.021051872486031128
3564.26,-0.02286581326407516
3560.26,-0.021185586955824863
3556.26,-0.01889429792075517
3552.27,-0.017630647567640767
3548.27,-0.016087590087888327
3544.27,-0.012982075563602929
3540.27,-0.010003591089666586
3536.28,-0.009628852131044783
3532.28,-0.011268454093875994
3528.28,-0.011474192952083823
3524.28,-0.007729821988953578
3520.29,-0.0017542400615346322
3516.29,0.0019834483130373344
3512.29,0.0007784249031236156
3508.29,-0.003690735570715425
3504.3,-0.006589054288339236
3500.3,-0.004593257616095153
3496.3,0.0002858701783260524
3492.3,0.002876311904335526
3488.31,0.0005564212434682209
3484.31,-0.004389615691028264
3480.31,-0.007725794658255779
3476.31,-0.007738372626496868
3472.32,-0.0061059474170920905
3468.32,-0.005180748015341258
3464.32,-0.0060734146457330045
3460.32,-0.008460606344057223
3456.32,-0.011072120029951971
3452.33,-0.012622006580030421
3448.33,-0.01269462721974244
3444.33,-0.011699025367458527
3440.33,-0.009638660548688338
3436.34,-0.006357917975859251
3432.34,-0.0029994324008384976
3428.34,-0.0016063429534387153
3424.34,-0.0027163966734814766
3420.35,-0.004453034240984189
3416.35,-0.004700016896845554
3412.35,-0.0031888421005873864
3408.35,-0.0009031291153597243
3404.36,0.0011406338845028289
3400.36,0.001732481325095724
3396.36,-0.0003025768378641866
3392.36,-0.004283813800913505
3388.37,-0.00730184535091942
3384.37,-0.0072970762765574015
3380.37,-0.005508722312667181
3376.37,-0.004462811779711192
3372.37,-0.0049524971940486506
3368.38,-0.006354769607403093
3364.38,-0.008265475030732054
3360.38,-0.009837679567867196
3356.38,-0.009130778148208727
3352.39,-0.0054988578909547885
3348.39,-0.0016641381815611575
3344.39,-0.0007864267454454898
3340.39,-0.0024503753218001224
3336.4,-0.003719902753210106
3332.4,-0.003400054623012929
3328.4,-0.0030853408917923576
3324.4,-0.0041371395866190395
3320.41,-0.006157479691266577
3316.41,-0.008394928834633983
3312.41,-0.010330999389970227
3308.41,-0.010696772600017904
3304.42,-0.00856250355427792
3300.42,-0.005874216175601096
3296.42,-0.006002758641820864
3292.42,-0.009229777462963084
3288.42,-0.012114857969032677
3284.43,-0.01230552673920311
3280.43,-0.011619955480395162
3276.43,-0.012517567131381718
3272.43,-0.014315920720519178
3268.44,-0.01506605057427301
3264.44,-0.01501937992490017
3260.44,-0.015618602115321997
3256.44,-0.01642520481552346
3252.45,-0.015785504083370087
3248.45,-0.013917275878032605
3244.45,-0.012744402444731458
3240.45,-0.012882102886638408
3236.46,-0.01292997963487839
3232.46,-0.011796839111031248
3228.46,-0.01013869263013992
3224.46,-0.009207186961159143
3220.47,-0.009373116270964701
3216.47,-0.010186807740761129
3212.47,-0.011100159201010195
3208.47,-0.011899673579274381
3204.47,-0.012738669176064206
3200.48,-0.013671622003767363
3196.48,-0.01410995622240857
3192.48,-0.013323309245004035
3188.48,-0.011749627039728656
3184.49,-0.010896182803129786
3180.49,-0.011384570390064472
3176.49,-0.012044044240885756
3172.49,-0.011678407418433344
3168.5,-0.010799277094309466
3164.5,-0.010503155600872498
3160.5,-0.010561130313546385
3156.5,-0.01000519977773563
3152.51,-0.00910090208593435
3148.51,-0.009107441427318482
3144.51,-0.010286074599319423
3140.51,-0.011551467659611243
3136.52,-0.012265955698407213
3132.52,-0.013072338987742646
3128.52,-0.014381718876972914
3124.52,-0.015181436286994048
3120.53,-0.014276516420025937
3116.53,-0.012194032889321312
3112.53,-0.010914093938907755
3108.53,-0.01164701464640222
3104.53,-0.013466067161051995
3100.54,-0.01443391059815884
3096.54,-0.013756640839971577
3092.54,-0.01239712131593491
3088.54,-0.011541562670207901
3084.55,-0.011150947923910725
3080.55,-0.010367125270994763
3076.55,-0.009007014304888424
3072.55,-0.007893890066273921
3068.56,-0.007657154897181703
3064.56,-0.008017091599658997
3060.56,-0.008528128304356185
3056.56,-0.009366445610900605
3052.57,-0.010906313449961475
3048.57,-0.013017100280162005
3044.57,-0.015268636617074272
3040.57,-0.017390248730441964
3036.58,-0.018917238069293858
3032.58,-0.01881672209061179
3028.58,-0.016420693693346797
3024.58,-0.01277740010212862
3020.58,-0.01034505630138198
3016.59,-0.010809242699465427
3012.59,-0.01342399451126576
3008.59,-0.016058500850098967
3004.59,-0.01729599427863861
3000.6,-0.017303807228201486
2996.6,-0.017258929240916803
2992.6,-0.01810806524829545
2988.6,-0.019848154728114846
2984.61,-0.02194211127502765
2980.61,-0.024045393009823002
2976.61,-0.025963448871194693
2972.61,-0.027146229670249
2968.62,-0.026828264813915752
2964.62,-0.024976519815409833
2960.62,-0.022569638025528437
2956.62,-0.02061530693559156
2952.63,-0.019377174779959226
2948.63,-0.018701505634652962
2944.63,-0.018419122976338985
2940.63,-0.01816302199213643
2936.63,-0.01739917699394232
2932.64,-0.016096294123953116
2928.64,-0.014851990582961959
2924.64,-0.014038016074234456
2920.64,-0.013335126084003314
2916.65,-0.012513299657924908
2912.65,-0.01206128248167689
2908.65,-0.0124224841609775
2904.65,-0.013344207588428114
2900.66,-0.014310009228509718
2896.66,-0.014984454564204686
2892.66,-0.015181821504500112
2888.66,-0.014854418538778492
2884.67,-0.014299978223192008
2880.67,-0.013998049397363503
2876.67,-0.013989735248004705
2872.67,-0.013858349455732999
2868.68,-0.01343583798626954
2864.68,-0.012963636628343001
2860.68,-0.012364542433980732
2856.68,-0.01111274448709259
2852.68,-0.009240609849987659
2848.69,-0.007806955797549036
2844.69,-0.007673499617443052
2840.69,-0.008524629845313717
2836.69,-0.009727873769361819
2832.7,-0.01115372962123846
2828.7,-0.012627804858944203
2824.7,-0.013483451046472542
2820.7,-0.013425790143795671
2816.71,-0.013140295286675052
2812.71,-0.013239389271494428
2808.71,-0.013191259595323962
2804.71,-0.01228819949746027
2800.72,-0.011110169487419472
2796.72,-0.01080770192287029
2792.72,-0.011330084089638629
2788.72,-0.011554722296188459
2784.73,-0.01108649166266202
2780.73,-0.010679929016791401
2776.73,-0.010690308100880095
2772.73,-0.010361560239247138
2768.74,-0.00917787164467522
2764.74,-0.007921318004314074
2760.74,-0.0076935915846228975
2756.74,-0.008505427929173996
2752.74,-0.009421003426331263
2748.75,-0.009744187696705387
2744.75,-0.00951567067344075
2740.75,-0.009131522390212064
2736.75,-0.008942650290535046
2732.76,-0.009093779845047523
2728.76,-0.009437513997448944
2724.76,-0.00965511958936693
2720.76,-0.009609247307853775
2716.77,-0.009422104475477637
2712.77,-0.009177951114840249
2708.77,-0.008829655393309292
2704.77,-0.008490711093771919
2700.78,-0.008474454949088075
2696.78,-0.008831564045856282
2692.78,-0.009166140681334414
2688.78,-0.0091697370781741
2684.79,-0.009084096806822867
2680.79,-0.009293849821262419
2676.79,-0.009640858220992506
2672.79,-0.0095305671277108
2668.79,-0.008697230952991438
2664.8,-0.007591079283592345
2660.8,-0.006920328213847845
2656.8,-0.0069609306227302725
2652.8,-0.007365715137189468
2648.81,-0.007537204111339389
2644.81,-0.007240862102978091
2640.81,-0.006856275590010224
2636.81,-0.00695801991144302
2632.82,-0.007594467854692642
2628.82,-0.008012300678114228
2624.82,-0.007219905595181561
2620.82,-0.0049113404660751205
2616.83,-0.0019323429546307383
2612.83,8.08197177783361e-05
2608.83,-0.0001303737087764885
2604.83,-0.002661045148934231
2600.84,-0.006884486444482832
2596.84,-0.011919626116355424
2592.84,-0.016262230969741033
2588.84,-0.017693819925021226
2584.84,-0.015207086127828822
2580.85,-0.011234227639642377
2576.85,-0.00938680693275825
2572.85,-0.01013519093155119
2568.85,-0.010531673391092768
2564.86,-0.008595261836189092
2560.86,-0.006488887181517005
2556.86,-0.007056149162502174
2552.86,-0.00971099906033339
2548.87,-0.011536698501440651
2544.87,-0.01061594999364427
2540.87,-0.007293592831199413
2536.87,-0.002748705406154079
2532.88,0.001110991000046295
2528.88,0.001644252618275957
2524.88,-0.0025981121627030477
2520.88,-0.009668566251816805
2516.89,-0.01553645972417778
2512.89,-0.018333655914060706
2508.89,-0.018924645322803253
2504.89,-0.017806865969959507
2500.89,-0.015088929156115274
2496.9,-0.01253289026888989
2492.9,-0.012341735153999184
2488.9,-0.014251522204795489
2484.9,-0.015702758621809684
2480.91,-0.015263337062842343
2476.91,-0.013529879475823086
2472.91,-0.01097866274788776
2468.91,-0.007347587000745262
2464.92,-0.0031699831793725554
2460.92,-6.325322054771473e-05
2456.92,0.0008924351119612203
2452.92,0.0003672397259737621
2448.93,-0.00047630247658172337
2444.93,-0.0016615350085554311
2440.93,-0.0036019492177480385
2436.93,-0.006043906690080814
2432.94,-0.008209041322000978
2428.94,-0.009485132582415113
2424.94,-0.009606735249227973
2420.94,-0.008819878603416216
2416.95,-0.007784311984496211
2412.95,-0.007094155047331531
2408.95,-0.006708974228928938
2404.95,-0.006191530657697723
2400.95,-0.005739763750984138
2396.96,-0.006053184600661808
2392.96,-0.007310698394381691
2388.96,-0.008584193570592515
2384.96,-0.008525776966374032
2380.97,-0.006549437392529807
2376.97,-0.0033955803092945514
2372.97,-0.0010918200985167142
2368.97,-0.001322505260941769
2364.98,-0.0032959220357185177
2360.98,-0.004391727654241725
2356.98,-0.003692245955110088
2352.98,-0.0028833031553443973
2348.99,-0.0032482719016149303
2344.99,-0.00408386373800937
2340.99,-0.003651670012933232
2336.99,-0.0013299544332913058
2333.0,0.001394399157907919
2329.0,0.00277116748142291
2325.0,0.0021140465932993372
2321.0,-0.00044249671483643214
2317.0,-0.003937376140993555
2313.01,-0.006524838659499491
2309.01,-0.0066174841167118
2305.01,-0.0043785932693448035
2301.01,-0.0011755510191086699
2297.02,0.0013933118508764279
2293.02,0.0015334526099832699
2289.02,-0.0012984893703251957
2285.02,-0.0053463421642313685
2281.03,-0.0062998057788592075
2277.03,-0.00039404673510254513
2273.03,0.00803251822061998
2269.03,0.01070047920494369
2265.04,0.002329385760893211
2261.04,-0.015218149443418693
2257.04,-0.032585421621443136
2253.04,-0.04305035287525158
2249.05,-0.038105567013813874
2245.05,-0.018214724736056336
2241.05,0.004865390127150787
2237.05,0.025073961792641195
2233.05,0.03874071246668602
2229.06,0.042862317705708725
2225.06,0.036013564651785984
2221.06,0.0228229950988467
2217.06,0.009993410490618481
2213.07,0.0026510917727065562
2209.07,0.006430466669288773
2205.07,0.01805597958815425
2201.07,0.031130095284503025
2197.08,0.03584735613133471
2193.08,0.03320179833608578
2189.08,0.02261908017589275
2185.08,-0.0009093607404636727
2181.09,-0.02920158814183426
2177.09,-0.04552401249796793
2173.09,-0.03364622531367671
2169.09,-0.006910399845270776
2165.1,0.00965696400788723
2161.1,0.022038845742794987
2157.1,0.04482284403268853
2153.1,0.06472503130730657
2149.11,0.05758099490379545
2145.11,0.034990779079183916
2141.11,0.017992071731214802
2137.11,0.010832787144699346
2133.11,0.006623592931886881
2129.12,0.004204542878701711
2125.12,0.0048624326688279885
2121.12,0.006324516406063376
2117.12,0.0019824756934168518
2113.13,-0.01200045890808277
2109.13,-0.03097195871173796
2105.13,-0.042770155359744634
2101.13,-0.039793931215657254
2097.14,-0.032223699736985405
2093.14,-0.02926788588820625
2089.14,-0.02742479906831208
2085.14,-0.019559724846974148
2081.15,-0.0064579795540595526
2077.15,0.010186293385865224
2073.15,0.028401035373861034
2069.15,0.036728680829033175
2065.16,0.027666969528463026
2061.16,0.010274023795126517
2057.16,0.007887749226841469
2053.16,0.018709170524533716
2049.16,0.025504538644448224
2045.17,0.04196073397554414
2041.17,0.06741197884704361
2037.17,0.06657706390708383
2033.17,0.0536582198244634
2029.18,0.018567788222397158
2025.18,-0.027281160314457462
2021.18,-0.02797127990137539
2017.18,-0.01400262156979137
2013.19,-0.021716876495257602
2009.19,-0.010546547000210547
2005.19,0.015495375880403329
2001.19,0.03573775273615016
1997.2,0.04904871707987797
1993.2,0.03936854390341003
1989.2,0.011651374344012054
1985.2,-0.031060017903689535
1981.21,-0.07403911973102295
1977.21,-0.060505570772819886
1973.21,-0.030977123082406938
1969.21,-0.009174369624073302
1965.21,0.0006377896338070829
1961.22,0.007077972840004835
1957.22,0.0050451758395648645
1953.22,-0.01225688510956319
1949.22,-0.03917612863351372
1945.23,-0.05033025037596516
1941.23,-0.03803215336435994
1937.23,-0.030212674048761188
1933.23,-0.03878754250998098
1929.24,-0.04372776174504717
1925.24,-0.029528208109102314
1921.24,-0.012138425267616194
1917.24,-0.004852870994704781
1913.25,-0.004645305188295625
1909.25,-0.006045782404690446
1905.25,-0.010441565122481709
1901.25,-0.01809532875913724
1897.26,-0.021602101864974115
1893.26,-0.01647282683820932
1889.26,-0.009445588134860976
1885.26,-0.005545095803158761
1881.26,-0.0038963053708574507
1877.27,-0.004421377726381728
1873.27,-0.009349999428112241
1869.27,-0.01634898797319421
1865.27,-0.017744796329003144
1861.28,-0.012680156678036954
1857.28,-0.010123883374252914
1853.28,-0.014024016870607921
1849.28,-0.018559727623273577
1845.29,-0.017802188527723594
1841.29,-0.01611725964480392
1837.29,-0.018530316471801637
1833.29,-0.021856148803761282
1829.3,-0.02068785996936302
1825.3,-0.016798389665914248
1821.3,-0.014792089849869312
1817.3,-0.014709773362343989
1813.31,-0.01481061627116911
1809.31,-0.016031909047159825
1805.31,-0.019694371165915513
1801.31,-0.023956800414864515
1797.32,-0.02530576836775266
1793.32,-0.023379974505932363
1789.32,-0.020659006975093333
1785.32,-0.019056746937055037
1781.32,-0.019783379900481717
1777.33,-0.023438085467030557
1773.33,-0.027858803050116933
1769.33,-0.028489460439301888
1765.33,-0.02529311589666209
1761.34,-0.024047038487835636
1757.34,-0.02801872157506953
1753.34,-0.03382809650307655
1749.34,-0.03623758181013412
1745.35,-0.03664148533634068
1741.35,-0.03894438724125719
1737.35,-0.0408503845051395
1733.35,-0.03783800150348663
1729.36,-0.03365923370782339
1725.36,-0.034407986024563034
1721.36,-0.039246616921736914
1717.36,-0.04176804285038316
1713.37,-0.04072948842405573
1709.37,-0.04212676252420893
1705.37,-0.04777692751827427
1701.37,-0.05103938512908866
1697.37,-0.04721450629302387
1693.38,-0.04230855240640421
1689.38,-0.04104055185004439
1685.38,-0.04086290003036657
1681.38,-0.03850951193416281
1677.39,-0.03522201732181224
1673.39,-0.03248796792752775
1669.39,-0.029220829856751358
1665.39,-0.026136319805166577
1661.4,-0.02700645757127471
1657.4,-0.03356492550011574
1653.4,-0.04054730063738485
1649.4,-0.03990040811298369
1645.41,-0.033762563911984164
1641.41,-0.02884794605184187
1637.41,-0.02659996065649949
1633.41,-0.025361681826318733
1629.42,-0.024735044442039892
1625.42,-0.025226464732280674
1621.42,-0.025707837779265746
1617.42,-0.02424062339603591
1613.42,-0.020907028142337688
1609.43,-0.017243346334545686
1605.43,-0.014159489571050444
1601.43,-0.011997780254205316
1597.43,-0.010870538695191105
1593.44,-0.010398208182709888
1589.44,-0.01042964163705042
1585.44,-0.012023766545693045
1581.44,-0.01613451140342796
1577.45,-0.02131472918465986
1573.45,-0.025047096189327385
1569.45,-0.028245257056358563
1565.45,-0.03389304743595036
1561.46,-0.040401736945504356
1557.46,-0.04113114334570497
1553.46,-0.0371805924028738
1549.46,-0.037314926555743325
1545.47,-0.04394874549610897
1541.47,-0.0490151286521104
1537.47,-0.0451782478937313
1533.47,-0.04027124949853225
1529.47,-0.04225654245017538
1525.48,-0.04876181978734806
1521.48,-0.05238518892674944
1517.48,-0.05238703637779439
1513.48,-0.05291993751501625
1509.49,-0.051702793354801
1505.49,-0.04418803168891865
1501.49,-0.034585644344576956
1497.49,-0.029152235300861577
1493.5,-0.026838233964258443
1489.5,-0.02320493396892157
1485.5,-0.01889834504335086
1481.5,-0.018314238541560106
1477.51,-0.0218950145822359
1473.51,-0.02468454242345226
1469.51,-0.023957202525904053
1465.51,-0.024111740430894483
1461.52,-0.027815046983353894
1457.52,-0.029517393945857603
1453.52,-0.023703284642894108
1449.52,-0.015554087865985784
1445.53,-0.011858686831803886
1441.53,-0.012918148630872851
1437.53,-0.014652003101617135
1433.53,-0.01485851165485215
1429.53,-0.015410305519509858
1425.54,-0.017224553427973147
1421.54,-0.01779090584453627
1417.54,-0.015165802587619147
1413.54,-0.011578204911432029
1409.55,-0.010427789149724153
1405.55,-0.012832652685839656
1401.55,-0.017225845396536415
1397.55,-0.02057699055374478
1393.56,-0.020755015232755462
1389.56,-0.018509631689374036
1385.56,-0.0163433784385256
1381.56,-0.01559568029583053
1377.57,-0.015537990673434688
1373.57,-0.014964863129964645
1369.57,-0.013727294052262407
1365.57,-0.012030503326385205
1361.58,-0.009467523447640614
1357.58,-0.006228619674328938
1353.58,-0.004157475927585599
1349.58,-0.004986982588676466
1345.58,-0.008022906706425293
1341.59,-0.010249054027399413
1337.59,-0.009487553273715522
1333.59,-0.0068909464470406495
1329.59,-0.005099610607880389
1325.6,-0.005250329885992215
1321.6,-0.006374936025491142
1317.6,-0.006881230832355419
1313.6,-0.006167719158156934
1309.61,-0.004930636079525666
1305.61,-0.004236409582155574
