wavenumber,transmittance
4000.0,-0.007131839180895624
3996.0,-0.007537498525479508
3992.0,-0.008252644594634128
3988.01,-0.010250977356343638
3984.01,-0.01194341948019713
3980.01,-0.011259982511569063
3976.01,-0.008779267559282525
3972.02,-0.006408214750851295
3968.02,-0.004583118640378739
3964.02,-0.0028672883852886395
3960.02,-0.001979461862088497
3956.03,-0.002993545990384607
3952.03,-0.005159175785125517
3948.03,-0.006650037977078045
3944.03,-0.007351512518012567
3940.04,-0.00835425511107956
3936.04,-0.009694856856939084
3932.04,-0.010911866366835003
3928.04,-0.012550819084616178
3924.05,-0.014682148167980745
3920.05,-0.015313867973968727
3916.05,-0.013721844633145502
3912.05,-0.013479469781786355
3908.05,-0.01805028611512797
3904.06,-0.02482878186337225
3900.06,-0.026585424965929874
3896.06,-0.022389958362468737
3892.06,-0.019123163109827285
3888.07,-0.020667723986949525
3884.07,-0.02394612439762776
3880.07,-0.025255105394729506
3876.07,-0.025774292040001
3872.08,-0.027453489165291455
3868.08,-0.028536100175340227
3864.08,-0.026899055272406727
3860.08,-0.024168688055789873
3856.09,-0.023073266788696426
3852.09,-0.02409683703017643
3848.09,-0.026364925307792598
3844.09,-0.029500690677176575
3840.1,-0.03223075162760773
3836.1,-0.03197892474626678
3832.1,-0.029560787909997006
3828.1,-0.02922405572786158
3824.11,-0.031131999772442086
3820.11,-0.03012316878769414
3816.11,-0.023930245649639366
3812.11,-0.018643394094927695
3808.11,-0.01863871243149512
3804.12,-0.01998375335281744
3800.12,-0.0162741722696329
3796.12,-0.009485955811443845
3792.12,-0.006747633511211216
3788.13,-0.009388993216698092
3784.13,-0.013329930168128749
3780.13,-0.015068703453354586
3776.13,-0.015242478476902301
3772.14,-0.015692295879201654
3768.14,-0.016544863154712743
3764.14,-0.01796867945902991
3760.14,-0.0216354971386543
3756.15,-0.02865876790246457
3752.15,-0.03753087956167858
3748.15,-0.04476703515177149
3744.15,-0.04838822405769051
3740.16,-0.048789456234246104
3736.16,-0.04611438982071629
3732.16,-0.04089352174577001
3728.16,-0.03533116995263383
3724.16,-0.03165114477103161
3720.17,-0.030600401453673286
3716.17,-0.031235845823605227
3712.17,-0.03057844290832233
3708.17,-0.02547195163248783
3704.18,-0.017786552552076684
3700.18,-0.013903500938960478
3696.18,-0.017313085584899874
3692.18,-0.023955138101122334
3688.19,-0.025818516116768
3684.19,-0.021954486331790344
3680.19,-0.019004235193474817
3676.19,-0.01961458630408931
3672.2,-0.018138126665831398
3668.2,-0.01158865037710474
3664.2,-0.007349514180850326
3660.2,-0.012278676039378296
3656.21,-0.025443588679009792
3652.21,-0.0370876478383638
3648.21,-0.035936637871450565
3644.21,-0.02599246922041201
3640.21,-0.01920289651888239
3636.22,-0.01964881767952139
3632.22,-0.02429301330783693
3628.22,-0.02784550260265545
3624.22,-0.027988365849607753
3620.23,-0.026729230899554375
3616.23,-0.025722749066635783
3612.23,-0.023695300336356973
3608.23,-0.019525118636185793
3604.24,-0.015573722592489302
3600.24,-0.015271903861342865
3596.24,-0.019064444010267367
3592.24,-0.0234919015425123
3588.25,-0.023938418241384936
3584.25,-0.019769692161814918
3580.25,-0.014993103790335758
3576.25,-0.013352666934076485
3572.26,-0.015238025955846496
3568.26,-0.01815978088310697
3564.26,-0.019239011295073962
3560.26,-0.018329256693057332
3556.26,-0.017238823514747016
3552.27,-0.016379383185523986
3548.27,-0.014418728865263113
3544.27,-0.010980981000930163
3540.27,-0.008213648098995592
3536.28,-0.008084141500187988
3532.28,-0.009506841510352759
3528.28,-0.009339756135157685
3524.28,-0.0057323768724778365
3520.29,-0.0005164553855149506
3516.29,0.002313292550628532
3512.29,0.0005143075826444955
3508.29,-0.004034272234796514
3504.3,-0.0065258079997510005
3500.3,-0.0038708552668353944
3496.3,0.00156365424210206
3492.3,0.004365822088873981
3488.31,0.0019537526441039572
3484.31,-0.0032572716902281376
3480.31,-0.006986301013670395
3476.31,-0.0074331354517016175
3472.32,-0.006067115053196582
3468.32,-0.005110596801981707
3464.32,-0.005797568503935764
3460.32,-0.008033972657739443
3456.32,-0.010588618046323973
3452.33,-0.012020637657086886
3448.33,-0.011878110718263394
3444.33,-0.010755707049645707
3440.33,-0.008816554939806398
3436.34,-0.005803094666887626
3432.34,-0.0026412990554628667
3428.34,-0.0013618808535900244
3424.34,-0.0026872424362567905
3420.35,-0.0047280418129001835
3416.35,-0.005012772376269289
3412.35,-0.0030889158810414284
3408.35,-0.00041503634686619086
3404.36,0.0013332311733761648
3400.36,0.001067210942295005
3396.36,-0.0014481206584999445
3392.36,-0.004968564788130533
3388.37,-0.007239550635503491
3384.37,-0.007204669561412491
3380.37,-0.006089688122435002
3376.37,-0.005565401300443215
3372.37,-0.005974013821382547
3368.38,-0.007058627592901181
3364.38,-0.008801362597791481
3360.38,-0.010216788599619605
3356.38,-0.00921335516489654
3352.39,-0.005377521304643992
3348.39,-0.0015344821174295802
3344.39,-0.0005091979343880663
3340.39,-0.0017455398357500759
3336.4,-0.0028540728719685955
3332.4,-0.003195629065824445
3328.4,-0.003991188893985106
3324.4,-0.005653281649922501
3320.41,-0.007377577302345046
3316.41,-0.008870574807971833
3312.41,-0.010203337503167586
3308.41,-0.01026917583641564
3304.42,-0.00805455983279104
3300.42,-0.005405208060057934
3296.42,-0.0055610884661561125
3292.42,-0.008719460336069728
3288.42,-0.011564779801758662
3284.43,-0.01190279229454029
3280.43,-0.011397410332074425
3276.43,-0.012141419051771258
3272.43,-0.013386880635867791
3268.44,-0.013549753989630499
3264.44,-0.013185847555558971
3260.44,-0.013662028622538076
3256.44,-0.01435995988923763
3252.45,-0.013662263499000663
3248.45,-0.011912842423431401
3244.45,-0.010962400608031966
3240.45,-0.011218775297990419
3236.46,-0.011215919057101965
3232.46,-0.010024878323931168
3228.46,-0.008489567021758503
3224.46,-0.007839442570977882
3220.47,-0.008199753981395873
3216.47,-0.008860902870388043
3212.47,-0.009286638562496254
3208.47,-0.009595264638002561
3204.47,-0.010299812637664755
3200.48,-0.01151284266435032
3196.48,-0.012348622500326928
3192.48,-0.011689462356948949
3188.48,-0.009846760987751696
3184.49,-0.008610982044444302
3180.49,-0.009093758422805864
3176.49,-0.010315596407461075
3172.49,-0.010641937689084321
3168.5,-0.009924915282051064
3164.5,-0.009144506345752932
3160.5,-0.00860060512735517
3156.5,-0.007817315135660894
3152.51,-0.006985032336082974
3148.51,-0.007034901472633763
3144.51,-0.008194438194201775
3140.51,-0.009571725405088839
3136.52,-0.01053497429359666
3132.52,-0.011558790972920945
3128.52,-0.013032276566054986
3124.52,-0.014061912200643505
3120.53,-0.013431073045155967
3116.53,-0.011463033412372124
3112.53,-0.010028679695062133
3108.53,-0.010442497858643946
3104.53,-0.011944484349377636
3100.54,-0.012732364357720087
3096.54,-0.012094909629589269
3092.54,-0.010909727953487155
3088.54,-0.0100972287501175
3084.55,-0.009489420552982165
3080.55,-0.008484683968652186
3076.55,-0.007247453443344275
3072.55,-0.006532990759183989
3068.56,-0.006553304532567517
3064.56,-0.006800787394992024
3060.56,-0.006994702690711282
3056.56,-0.00754400509176794
3052.57,-0.008921223990366205
3048.57,-0.011102180463310702
3044.57,-0.013745827863613284
3040.57,-0.016395246480943197
3036.58,-0.01819154785286505
3032.58,-0.017979008029902127
3028.58,-0.015456821804042287
3024.58,-0.01207293292556616
3020.58,-0.010113748769771766
3016.59,-0.010705746190977486
3012.59,-0.012945868451362877
3008.59,-0.014994081943553096
3004.59,-0.015682013491186968
3000.6,-0.015290099370644537
2996.6,-0.015055358900446465
2992.6,-0.015929870968005005
2988.6,-0.017856550926776377
2984.61,-0.020180422488242717
2980.61,-0.02238665150755531
2976.61,-0.02415885379425841
2972.61,-0.025040641279325114
2968.62,-0.024572093736541612
2964.62,-0.022915392559443824
2960.62,-0.020863381111530223
2956.62,-0.019096491005117563
2952.63,-0.017849168690212736
2948.63,-0.017209110301135692
2944.63,-0.017119841696192233
2940.63,-0.017088920136458487
2936.63,-0.016522077818946775
2932.64,-0.015551141923329114
2928.64,-0.014884607917204577
2924.64,-0.014670856866549276
2920.64,-0.014200958857041202
2916.65,-0.013101966456938015
2912.65,-0.012060919636367271
2908.65,-0.011803130661733406
2904.65,-0.012251020110331703
2900.66,-0.012916618077459401
2896.66,-0.013382435278124296
2892.66,-0.013388042409258314
2888.66,-0.01294974885939983
2884.67,-0.012499957960919086
2880.67,-0.012473944903075974
2876.67,-0.012659698351249648
2872.67,-0.012474928442467096
2868.68,-0.011905447770305158
2864.68,-0.011511044128250533
2860.68,-0.011344417048734373
2856.68,-0.01067587364989939
2852.68,-0.00916195118630183
2848.69,-0.007627471063719965
2844.69,-0.007037865424616029
2840.69,-0.007385329957481274
2836.69,-0.008265615509170314
2832.7,-0.009565773562031676
2828.7,-0.011009869985091951
2824.7,-0.011883607946818437
2820.7,-0.011931465156092459
2816.71,-0.011830313618926851
2812.71,-0.01206029235810456
2808.71,-0.011943288810177081
2804.71,-0.010773718686222872
2800.72,-0.009313812569405618
2796.72,-0.008932955827813793
2792.72,-0.009636446366362642
2788.72,-0.010116859044840738
2784.73,-0.009728068151521552
2780.73,-0.009174260187741264
2776.73,-0.008978826570428557
2772.73,-0.008522911558883227
2768.74,-0.007243890438474701
2764.74,-0.0058567344065099365
2760.74,-0.005546345923888347
2756.74,-0.006435502186009512
2752.74,-0.007536218710008149
2748.75,-0.008012211977911672
2744.75,-0.00788586066595838
2740.75,-0.0076274413780803695
2736.75,-0.007575523094160059
2732.76,-0.007796653466548873
2728.76,-0.008158776790003007
2724.76,-0.00842110149554163
2720.76,-0.008416435121477158
2716.77,-0.00816435489199488
2712.77,-0.007771100932548682
2708.77,-0.007323586040412361
2704.77,-0.0069614745670739985
2700.78,-0.006877536549812578
2696.78,-0.007063896384432755
2692.78,-0.007220665828482934
2688.78,-0.007129833648241073
2684.79,-0.0070241905562718615
2680.79,-0.007286375124878758
2676.79,-0.007785918958108499
2672.79,-0.007856750700898946
2668.79,-0.00707683382397304
2664.8,-0.00586980394214014
2660.8,-0.005106916245869907
2656.8,-0.005185973572763885
2652.8,-0.005664148139446793
2648.81,-0.005790067485880216
2644.81,-0.005368340848207835
2640.81,-0.004939583388709427
2636.81,-0.005071169490471282
2632.82,-0.005650153566022017
2628.82,-0.00593313743404349
2624.82,-0.005205626377181698
2620.82,-0.003389901002711501
2616.83,-0.0011822088881064978
2612.83,0.00028411860063909215
2608.83,0.00024330720714057022
2604.83,-0.001331013191772072
2600.84,-0.004308572728980867
2596.84,-0.008572409262733144
2592.84,-0.01298592737414998
2588.84,-0.015031910040245403
2584.84,-0.013147793612511482
2580.85,-0.009359210044823837
2576.85,-0.007147860393093357
2572.85,-0.007149480680656607
2568.85,-0.006873143832942153
2564.86,-0.004853516817037446
2560.86,-0.003276535425733993
2556.86,-0.004486847895351826
2552.86,-0.007461554003521988
2548.87,-0.009239093863154033
2544.87,-0.008172170299695622
2540.87,-0.004843205594497973
2536.87,-0.0005035506905560518
2532.88,0.003057225258591015
2528.88,0.0035033825877790192
2524.88,-0.0004376823865373889
2520.88,-0.007045734435502128
2516.89,-0.012758096945129142
2512.89,-0.01584100319349324
2508.89,-0.016829938806698846
2504.89,-0.01582681386854512
2500.89,-0.01282050554389006
2496.9,-0.009789017371846438
2492.9,-0.009407582178037234
2488.9,-0.011787460377022742
2484.9,-0.0140704822991422
2480.91,-0.014013330228224515
2476.91,-0.011919286014203615
2472.91,-0.008861282973957309
2468.91,-0.0052477657360322305
2464.92,-0.0014307528909569128
2460.92,0.0016138678713575449
2456.92,0.0029321304512423645
2452.92,0.0027965065108034644
2448.93,0.002113526185909124
2444.93,0.0008761681458547849
2440.93,-0.0014038843638644483
2436.93,-0.004443624113427797
2432.94,-0.006949398669831392
2428.94,-0.007966088246152006
2424.94,-0.007815105611690472
2420.94,-0.00745763918826635
2416.95,-0.007220545418851956
2412.95,-0.006926196993376748
2408.95,-0.006419038709157124
2404.95,-0.005727347631786946
2400.95,-0.00522459212520518
2396.96,-0.0054614272076020254
2392.96,-0.006806511953764267
2388.96,-0.008583521531719195
2384.96,-0.009044369586230486
2380.97,-0.006928448733916764
2376.97,-0.0029184770042581677
2372.97,0.0002355280384479597
2368.97,0.00028555026505690945
2364.98,-0.0016806514846800739
2360.98,-0.002716035232357109
2356.98,-0.002145633144777049
2352.98,-0.0016949294210758725
2348.99,-0.0022477359967428634
2344.99,-0.002909637068226401
2340.99,-0.0022690781711049253
2336.99,-6.333718428553638e-05
2333.0,0.002482973201748255
2329.0,0.004069509799635892
2325.0,0.003939110474764872
2321.0,0.001735661964965048
2317.0,-0.001943457358894105
2313.01,-0.005105991895767962
2309.01,-0.005695750908257531
2305.01,-0.0035316643521688127
2301.01,0.0002154078088216294
2297.02,0.0040010476957085435
2293.02,0.005782930971218996
2289.02,0.004490089906540838
2285.02,0.0011555559454533995
2281.03,-0.0010101792973550268
2277.03,0.00136551713915725
2273.03,0.00605290776313732
2269.03,0.0075939367244362635
2265.04,0.0007070162063999332
2261.04,-0.015763209536399907
2257.04,-0.03422394025784926
2253.04,-0.045555655455307556
2249.05,-0.037999324256562966
2245.05,-0.013591629666773075
2241.05,0.011760002243776654
2237.05,0.03170691390809838
2233.05,0.0444868801366502
2229.06,0.04948920136106421
2225.06,0.04495717581340023
2221.06,0.03370366479711849
2217.06,0.02350673472027522
2213.07,0.016572003244633603
2209.07,0.016942659155286987
2205.07,0.023913993270500856
2201.07,0.034821480878121806
2197.08,0.04235650785275492
2193.08,0.042017601479078334
2189.08,0.02697634047637033
2185.08,-0.004574734795049497
2181.09,-0.03641124627759024
2177.09,-0.051865489353906294
2173.09,-0.038136800947870954
2169.09,-0.009775042757799564
2165.1,0.012892762035576984
2161.1,0.03372129023216332
2157.1,0.059671739889455594
2153.1,0.07633335770313551
2149.11,0.06035850420201397
2145.11,0.029010941674425056
2141.11,0.009249645126114748
2137.11,0.0033787839288737694
2133.11,0.002350203028604168
2129.12,0.0037095501442497803
2125.12,0.00617661546994849
2121.12,0.006561509458240686
2117.12,-0.000756430085197581
2113.13,-0.017611966438578455
2109.13,-0.03767316116577341
2105.13,-0.04797127798428486
2101.13,-0.04243758612144968
2097.14,-0.03333179698481729
2093.14,-0.029696540285059404
2089.14,-0.027933417320507765
2085.14,-0.021354230382123415
2081.15,-0.010471340930499194
2077.15,0.004105381086349781
2073.15,0.02303129204586278
2069.15,0.0344240494607993
2065.16,0.026471599459007004
2061.16,0.007922124806913438
2057.16,0.002395877023937231
2053.16,0.008469172472699765
2049.16,0.013020889337637898
2045.17,0.03080208157138749
2041.17,0.05859116927470063
2037.17,0.06056680103103852
2033.17,0.04965128837428314
2029.18,0.017780124532419568
2025.18,-0.022747679634217907
2021.18,-0.01998142740650185
2017.18,-0.008872621085037342
2013.19,-0.016447915263777806
2009.19,-0.00269354407902923
2005.19,0.021741938016884288
2001.19,0.03744609779793031
1997.2,0.04220791219910677
1993.2,0.023648848702817193
1989.2,-0.006362350431768972
1985.2,-0.04214037945670704
1981.21,-0.07159658463167291
1977.21,-0.04675545162390103
1973.21,-0.01401499888476659
1969.21,0.0018655192864668914
1965.21,0.00733139637127965
1961.22,0.014808637821099181
1957.22,0.0134556635301367
1953.22,-0.007623449690478833
1949.22,-0.04099454692411573
1945.23,-0.05600387633817301
1941.23,-0.042503029809627724
1937.23,-0.03313756873539128
1933.23,-0.041315620618542735
1929.24,-0.045568687702264604
1925.24,-0.0295910209771278
1921.24,-0.010000440443535843
1917.24,-0.00010354046608848297
1913.25,0.0024564938761767324
1909.25,0.001456867153025415
1905.25,-0.00428491064251171
1901.25,-0.014019498372779896
1897.26,-0.019642045246392743
1893.26,-0.01575559348234511
1889.26,-0.008730510458384884
1885.26,-0.004187009865307373
1881.26,-0.0020634075393853686
1877.27,-0.002603899592954641
1873.27,-0.007531246084636805
1869.27,-0.014203836377970576
1865.27,-0.015450356406148944
1861.28,-0.010790087262453363
1857.28,-0.008571669103656608
1853.28,-0.012185352770109195
1849.28,-0.01610813278086183
1845.29,-0.015108488830598479
1841.29,-0.013481737608515875
1837.29,-0.01583046516692222
1833.29,-0.019145268917625344
1829.3,-0.018378637380111466
1825.3,-0.01495144126949562
1821.3,-0.012941310121459958
1817.3,-0.012556639313478642
1813.31,-0.012523576247527788
1809.31,-0.013760400219132586
1805.31,-0.017286415239877003
1801.31,-0.021285238292077187
1797.32,-0.022572248238167784
1793.32,-0.020827008941983128
1789.32,-0.018226856006659724
1785.32,-0.01654804377404887
1781.32,-0.017102625312231574
1777.33,-0.020544569105073383
1773.33,-0.024761894967365906
1769.33,-0.025425891126284583
1765.33,-0.022526246499657353
1761.34,-0.021417932420754165
1757.34,-0.025047575238911407
1753.34,-0.030304744843336087
1749.34,-0.03254414781129948
1745.35,-0.03316359961627877
1741.35,-0.03564703207848436
1737.35,-0.037701539388997556
1733.35,-0.03509833398240532
1729.36,-0.03138516009212587
1725.36,-0.03225930106738456
1721.36,-0.03695783235615062
1717.36,-0.03952970192108014
1713.37,-0.038780381019989464
1709.37,-0.0402717207815041
1705.37,-0.045755764900855395
1701.37,-0.04907217932620649
1697.37,-0.04568293101087262
1693.38,-0.04105246922473951
1689.38,-0.039702983990947266
1685.38,-0.039502470129944095
1681.38,-0.03747240819204477
1677.39,-0.034583152472869874
1673.39,-0.032121039974926394
1669.39,-0.029190209301356823
1665.39,-0.02650798654315015
1661.4,-0.02743037598836853
1657.4,-0.03341629370415833
1653.4,-0.039630493149115834
1649.4,-0.03882098164230337
1645.41,-0.033005360018079126
1641.41,-0.028303958711217957
1637.41,-0.02609756817907472
1633.41,-0.024937940584167897
1629.42,-0.024351958503290857
1625.42,-0.024644352043423592
1621.42,-0.024818433090399515
1617.42,-0.023273529483854638
1613.42,-0.020123721122388125
1609.43,-0.016685436359273973
1605.43,-0.013789720341458974
1601.43,-0.011809839837418585
1597.43,-0.01080793973789804
1593.44,-0.01033409756256375
1589.44,-0.010260874323594987
1585.44,-0.011661529463164025
1581.44,-0.01544577249506517
1577.45,-0.020259841418685868
1573.45,-0.023804702261255868
1569.45,-0.02693012748371585
1565.45,-0.032320863686112325
1561.46,-0.03846203587363237
1557.46,-0.03928421785439395
1553.46,-0.03584745034211079
1549.46,-0.036177348989540434
1545.47,-0.042474558697766625
1541.47,-0.04736694255826231
1537.47,-0.04410775529517215
1533.47,-0.039801803146178184
1529.47,-0.04171592476715725
1525.48,-0.04767549911852284
1521.48,-0.050907082278152424
1517.48,-0.05073652589082998
1513.48,-0.050941411157787046
1509.49,-0.04944470953692457
1505.49,-0.04220261973241021
1501.49,-0.03314637474572796
1497.49,-0.02795434440897718
1493.5,-0.025670352161919617
1489.5,-0.022320831647717337
1485.5,-0.018487158662791877
1481.5,-0.01807613035064175
1477.51,-0.02142842613980409
1473.51,-0.024004838646325202
1469.51,-0.023300707286371597
1465.51,-0.023345090020574034
1461.52,-0.02664570550320391
1457.52,-0.028198794069870883
1453.52,-0.022914647150242145
1449.52,-0.015457439725180867
1445.53,-0.012094595972835923
1441.53,-0.013197400087847585
1437.53,-0.014994088229750714
1433.53,-0.015338305245062432
1429.53,-0.015931494978223784
1425.54,-0.01764998589470914
1421.54,-0.01809476972043112
1417.54,-0.015386853296166073
1413.54,-0.011708547165642371
1409.55,-0.010386740273821526
1405.55,-0.012479780233380408
1401.55,-0.016455718849319304
1397.55,-0.01951670778815312
1393.56,-0.019762502247642685
1389.56,-0.017809777425307018
1385.56,-0.015809515780741905
1381.56,-0.015001120537556523
1377.57,-0.01485600292326945
1373.57,-0.014309078380233164
1369.57,-0.013132170539008826
1365.57,-0.011493645979179096
1361.58,-0.009095530333383294
1357.58,-0.0060928154512934415
1353.58,-0.004081680221492277
1349.58,-0.004697335887311794
1345.58,-0.007465536495862592
1341.59,-0.009643599016944997
1337.59,-0.009065544362301753
1333.59,-0.0067019680488813495
1329.59,-0.005053169143061743
1325.6,-0.005174985792823678
1321.6,-0.0060786649531242715
1317.6,-0.00631357383470111
1313.6,-0.0054876872529385674
1309.61,-0.004306158393354801
